Time,Intensity
9,51
9.5,103
10,155
10.5,206
11,255
11.5,301
12,345
12.5,384
13,418
13.5,447
14,470
14.5,486
15,497
15.5,500
16,500
16.5,497
17,486
17.5,470
18,447
18.5,418
19,384
19.5,345
20,301
20.5,255
21,206
21.5,155
22,103
22.5,51